PE FL                   SPECTRUM    ASCII       PEDS        1.60        
  -1
S15P.SP
24/04/05
12:41:04.00
24/04/05
12:42:27.00
Jan

900.500000
1









LS55
455.00
5.00
5.00
SCAN
1
20
100
100
0
400
0
1
0
1
5
ON
900 455 
1 0 0
#HDR
-1
-1
#GR
NM

0.00002384185791015625
0.0
460.000000
0.500000
882
8
65.398871
-0.397727
#DATA
460.000000	0.060000  
460.500000	-0.039863 
461.000000	-0.087765 
461.500000	-0.066386 
462.000000	-0.008651 
462.500000	0.067613  
463.000000	0.028704  
463.500000	-0.117204 
464.000000	-0.308977 
464.500000	-0.299613 
465.000000	-0.110234 
465.500000	0.135681  
466.000000	0.183446  
466.500000	0.016272  
467.000000	-0.170174 
467.500000	-0.208712 
468.000000	-0.046318 
468.500000	0.093719  
469.000000	0.109560  
469.500000	0.029689  
470.000000	-0.073598 
470.500000	-0.029772 
471.000000	0.040560  
471.500000	0.191015  
472.000000	0.177227  
472.500000	0.179916  
473.000000	-0.006007 
473.500000	-0.085242 
474.000000	-0.197106 
474.500000	-0.138856 
475.000000	-0.117234 
475.500000	-0.005606 
476.000000	0.071984  
476.500000	-0.023840 
477.000000	-0.256030 
477.500000	-0.397727 
478.000000	-0.232318 
478.500000	0.018651  
479.000000	0.164765  
479.500000	0.069295  
480.000000	-0.030303 
480.500000	-0.058590 
481.000000	0.041492  
481.500000	0.115439  
482.000000	0.113272  
482.500000	0.051590  
483.000000	-0.050659 
483.500000	-0.163106 
484.000000	-0.304530 
484.500000	-0.355257 
485.000000	-0.346128 
485.500000	-0.146500 
486.000000	0.011469  
486.500000	0.056689  
487.000000	-0.129166 
487.500000	-0.198310 
488.000000	-0.101242 
488.500000	0.017553  
489.000000	-0.094992 
489.500000	-0.293553 
490.000000	-0.329166 
490.500000	-0.268363 
491.000000	-0.157643 
491.500000	-0.093984 
492.000000	-0.046174 
492.500000	-0.178621 
493.000000	-0.219106 
493.500000	-0.151681 
494.000000	0.127583  
494.500000	0.279992  
495.000000	0.274916  
495.500000	0.074787  
496.000000	-0.034621 
496.500000	-0.051318 
497.000000	0.073128  
497.500000	0.092280  
498.000000	0.164977  
498.500000	0.350318  
499.000000	0.612878  
499.500000	0.733628  
500.000000	0.772507  
500.500000	0.704416  
501.000000	0.640431  
501.500000	0.663196  
502.000000	0.782257  
502.500000	0.908037  
503.000000	0.907999  
503.500000	0.819295  
504.000000	0.760742  
504.500000	0.804469  
505.000000	0.911750  
505.500000	1.116583  
506.000000	1.334356  
506.500000	1.435174  
507.000000	1.461553  
507.500000	1.521181  
508.000000	1.804674  
508.500000	2.213022  
509.000000	2.449166  
509.500000	2.402522  
510.000000	2.257848  
510.500000	2.323689  
511.000000	2.538075  
511.500000	2.712401  
512.000000	2.815378  
512.500000	2.883590  
513.000000	2.959651  
513.500000	2.919643  
514.000000	2.942287  
514.500000	3.028500  
515.000000	3.189946  
515.500000	3.203416  
516.000000	3.084969  
516.500000	2.930636  
517.000000	2.825969  
517.500000	2.772825  
518.000000	2.779348  
518.500000	2.995462  
519.000000	3.294507  
519.500000	3.511734  
520.000000	3.603962  
520.500000	3.445840  
521.000000	3.304196  
521.500000	3.340166  
522.000000	3.686045  
522.500000	3.760515  
523.000000	3.482878  
523.500000	3.095499  
524.000000	3.206689  
524.500000	3.404757  
525.000000	3.399484  
525.500000	3.240015  
526.000000	3.315901  
526.500000	3.570712  
527.000000	3.691590  
527.500000	3.665219  
528.000000	3.670636  
528.500000	3.773409  
529.000000	3.802833  
529.500000	3.692545  
530.000000	3.464696  
530.500000	3.263181  
531.000000	3.036106  
531.500000	2.916825  
532.000000	2.858901  
532.500000	2.941090  
533.000000	3.107212  
533.500000	3.382272  
534.000000	3.393151  
534.500000	3.437590  
535.000000	3.463886  
535.500000	3.663469  
536.000000	3.541954  
536.500000	3.435712  
537.000000	3.350007  
537.500000	3.492734  
538.000000	3.367045  
538.500000	3.267492  
539.000000	3.384628  
539.500000	3.695795  
540.000000	3.882833  
540.500000	3.756833  
541.000000	3.681500  
541.500000	3.675537  
542.000000	3.770507  
542.500000	3.656250  
543.000000	3.601159  
543.500000	3.577878  
544.000000	3.706318  
544.500000	3.810363  
545.000000	3.855083  
545.500000	3.792083  
546.000000	3.678560  
546.500000	3.639901  
547.000000	3.816613  
547.500000	4.094954  
548.000000	4.347287  
548.500000	4.544621  
549.000000	4.723946  
549.500000	4.718181  
550.000000	4.646303  
550.500000	4.508007  
551.000000	4.368356  
551.500000	4.030446  
552.000000	3.881848  
552.500000	3.965204  
553.000000	4.335886  
553.500000	4.501484  
554.000000	4.654106  
554.500000	4.706000  
555.000000	4.721636  
555.500000	4.523310  
556.000000	4.512280  
556.500000	4.713765  
557.000000	4.768416  
557.500000	4.567280  
558.000000	4.553545  
558.500000	4.708704  
559.000000	4.899363  
559.500000	4.779606  
560.000000	4.685325  
560.500000	4.672431  
561.000000	4.752969  
561.500000	4.719257  
562.000000	4.609212  
562.500000	4.510924  
563.000000	4.410181  
563.500000	4.457893  
564.000000	4.442386  
564.500000	4.425954  
565.000000	4.390757  
565.500000	4.378886  
566.000000	4.432696  
566.500000	4.636659  
567.000000	4.930272  
567.500000	5.009530  
568.000000	4.733553  
568.500000	4.401234  
569.000000	4.292825  
569.500000	4.424946  
570.000000	4.470560  
570.500000	4.483393  
571.000000	4.463462  
571.500000	4.453954  
572.000000	4.439401  
572.500000	4.531863  
573.000000	4.826439  
573.500000	5.176446  
574.000000	5.128628  
574.500000	4.782636  
575.000000	4.580924  
575.500000	4.923856  
576.000000	5.357340  
576.500000	5.436719  
577.000000	5.058280  
577.500000	4.724621  
578.000000	4.731780  
578.500000	4.993325  
579.000000	5.223871  
579.500000	5.184848  
580.000000	5.124719  
580.500000	5.074628  
581.000000	5.162727  
581.500000	5.108083  
582.000000	5.099106  
582.500000	5.098999  
583.000000	5.237075  
583.500000	5.380696  
584.000000	5.257113  
584.500000	4.990916  
585.000000	4.843030  
585.500000	5.070924  
586.000000	5.360136  
586.500000	5.593962  
587.000000	5.538212  
587.500000	5.484340  
588.000000	5.535174  
588.500000	5.587083  
589.000000	5.600136  
589.500000	5.514636  
590.000000	5.743446  
590.500000	5.791606  
591.000000	5.785439  
591.500000	5.695628  
592.000000	5.992280  
592.500000	6.048848  
593.000000	6.090984  
593.500000	5.964068  
594.000000	6.249583  
594.500000	6.527242  
595.000000	6.767234  
595.500000	6.807530  
596.000000	6.856666  
596.500000	6.787878  
597.000000	6.674712  
597.500000	6.502515  
598.000000	6.628053  
598.500000	6.847136  
599.000000	6.873310  
599.500000	6.666795  
600.000000	6.748469  
600.500000	6.967477  
601.000000	7.083143  
601.500000	6.895189  
602.000000	7.116416  
602.500000	7.491871  
603.000000	7.806363  
603.500000	7.733181  
604.000000	7.951060  
604.500000	8.335075  
605.000000	8.828068  
605.500000	8.868621  
606.000000	8.569681  
606.500000	8.234712  
607.000000	8.136348  
607.500000	8.188090  
608.000000	8.315015  
608.500000	8.581750  
609.000000	8.942401  
609.500000	9.099545  
610.000000	8.948674  
610.500000	8.974553  
611.000000	9.266772  
611.500000	9.474083  
612.000000	9.023477  
612.500000	8.500598  
613.000000	8.191825  
613.500000	8.330575  
614.000000	8.153053  
614.500000	7.777500  
615.000000	7.340242  
615.500000	7.084984  
616.000000	7.087871  
616.500000	7.276340  
617.000000	7.551848  
617.500000	7.290704  
618.000000	7.027204  
618.500000	6.995053  
619.000000	7.380742  
619.500000	7.429636  
620.000000	7.238727  
620.500000	6.934515  
621.000000	7.020325  
621.500000	7.166189  
622.000000	7.290984  
622.500000	7.151310  
623.000000	7.281931  
623.500000	7.761848  
624.000000	8.252090  
624.500000	8.419378  
625.000000	8.654954  
625.500000	9.054121  
626.000000	9.320893  
626.500000	9.268030  
627.000000	9.102553  
627.500000	9.288045  
628.000000	9.531696  
628.500000	9.880840  
629.000000	10.033439 
629.500000	10.006954 
630.000000	9.633196  
630.500000	9.487439  
631.000000	9.604946  
631.500000	10.201083 
632.000000	10.757924 
632.500000	11.363545 
633.000000	11.814431 
633.500000	11.963015 
634.000000	11.876265 
634.500000	12.004780 
635.000000	12.428469 
635.500000	12.883000 
636.000000	13.242303 
636.500000	13.585545 
637.000000	13.958765 
637.500000	13.901840 
638.000000	13.756575 
638.500000	13.909946 
639.000000	14.566666 
639.500000	15.152583 
640.000000	15.475113 
640.500000	15.664871 
641.000000	16.025143 
641.500000	16.613280 
642.000000	17.165363 
642.500000	17.854590 
643.000000	18.265863 
643.500000	18.724121 
644.000000	18.945772 
644.500000	19.542007 
645.000000	19.771416 
645.500000	20.068280 
646.000000	19.942916 
646.500000	20.069378 
647.000000	20.205204 
647.500000	20.933265 
648.000000	21.823696 
648.500000	22.844598 
649.000000	23.451606 
649.500000	23.884272 
650.000000	24.389030 
650.500000	25.167227 
651.000000	25.801477 
651.500000	26.023916 
652.000000	26.118234 
652.500000	26.846378 
653.000000	27.472704 
653.500000	27.803015 
654.000000	27.935553 
654.500000	28.749696 
655.000000	29.558303 
655.500000	30.050007 
656.000000	30.550121 
656.500000	31.786772 
657.000000	33.015022 
657.500000	33.528159 
658.000000	33.384803 
658.500000	33.881295 
659.000000	35.236606 
659.500000	36.636113 
660.000000	36.768954 
660.500000	36.838750 
661.000000	37.570030 
661.500000	39.215909 
662.000000	40.762681 
662.500000	41.946825 
663.000000	42.535674 
663.500000	42.451856 
664.000000	42.598628 
664.500000	43.465999 
665.000000	44.643863 
665.500000	45.302825 
666.000000	45.759583 
666.500000	46.542037 
667.000000	47.443886 
667.500000	48.328212 
668.000000	48.832106 
668.500000	49.137583 
669.000000	49.473174 
669.500000	49.943159 
670.000000	50.881939 
670.500000	51.581393 
671.000000	52.104166 
671.500000	52.226977 
672.000000	52.936863 
672.500000	53.785287 
673.000000	54.355265 
673.500000	53.889977 
674.000000	53.884204 
674.500000	54.633318 
675.000000	55.758409 
675.500000	56.445757 
676.000000	57.396818 
676.500000	58.360143 
677.000000	58.779303 
677.500000	58.212704 
678.000000	57.938348 
678.500000	58.772060 
679.000000	60.031287 
679.500000	61.073462 
680.000000	61.916871 
680.500000	62.546446 
681.000000	62.894280 
681.500000	63.080734 
682.000000	63.128810 
682.500000	62.870954 
683.000000	62.676196 
683.500000	63.087204 
684.000000	64.261272 
684.500000	64.638272 
685.000000	64.380712 
685.500000	64.155946 
686.000000	64.536098 
686.500000	64.763674 
687.000000	65.217030 
687.500000	65.398871 
688.000000	65.037772 
688.500000	64.292750 
689.000000	63.752825 
689.500000	63.509060 
690.000000	62.841356 
690.500000	61.337848 
691.000000	60.186204 
691.500000	60.231250 
692.000000	61.010924 
692.500000	61.504568 
693.000000	60.912045 
693.500000	59.621787 
694.000000	58.303363 
694.500000	57.580462 
695.000000	56.651234 
695.500000	56.190484 
696.000000	55.365484 
696.500000	54.903515 
697.000000	54.191765 
697.500000	53.366196 
698.000000	52.237757 
698.500000	50.962234 
699.000000	49.347643 
699.500000	48.187113 
700.000000	47.911765 
700.500000	48.007969 
701.000000	47.338795 
701.500000	45.587053 
702.000000	43.781674 
702.500000	43.003946 
703.000000	42.806712 
703.500000	42.442484 
704.000000	41.190909 
704.500000	39.792931 
705.000000	38.546446 
705.500000	37.754507 
706.000000	37.109924 
706.500000	36.621492 
707.000000	35.800386 
707.500000	34.866984 
708.000000	33.729712 
708.500000	33.086909 
709.000000	32.433136 
709.500000	31.700734 
710.000000	30.772545 
710.500000	30.305287 
711.000000	29.697325 
711.500000	28.891242 
712.000000	27.939204 
712.500000	27.385856 
713.000000	27.165803 
713.500000	26.759037 
714.000000	26.145068 
714.500000	25.143303 
715.000000	23.823189 
715.500000	22.605840 
716.000000	22.021113 
716.500000	22.073265 
717.000000	22.113272 
717.500000	21.929265 
718.000000	21.459090 
718.500000	20.934856 
719.000000	20.358416 
719.500000	19.996310 
720.000000	19.914893 
720.500000	19.871969 
721.000000	19.417015 
721.500000	18.461356 
722.000000	17.849696 
722.500000	17.371598 
723.000000	17.049295 
723.500000	16.493583 
724.000000	16.317363 
724.500000	15.924053 
725.000000	15.609719 
725.500000	15.052818 
726.000000	15.136750 
726.500000	15.307446 
727.000000	15.355553 
727.500000	14.928803 
728.000000	14.496075 
728.500000	14.028356 
729.000000	13.556257 
729.500000	13.089946 
730.000000	12.759560 
730.500000	12.842159 
731.000000	12.966515 
731.500000	12.887621 
732.000000	12.389500 
732.500000	11.905030 
733.000000	11.579825 
733.500000	11.403310 
734.000000	11.171727 
734.500000	10.924431 
735.000000	10.915659 
735.500000	10.679037 
736.000000	10.211893 
736.500000	9.819916  
737.000000	10.014780 
737.500000	10.455068 
738.000000	10.510750 
738.500000	10.160780 
739.000000	9.722598  
739.500000	9.656712  
740.000000	9.649378  
740.500000	9.485219  
741.000000	9.071628  
741.500000	8.807901  
742.000000	8.789757  
742.500000	8.686181  
743.000000	8.528492  
743.500000	8.419931  
744.000000	8.710075  
744.500000	8.797992  
745.000000	8.725363  
745.500000	8.323772  
746.000000	8.163484  
746.500000	7.981037  
747.000000	7.964901  
747.500000	7.744848  
748.000000	7.464848  
748.500000	7.149871  
749.000000	7.285696  
749.500000	7.460704  
750.000000	7.514772  
750.500000	7.250121  
751.000000	7.167310  
751.500000	7.048446  
752.000000	6.886712  
752.500000	6.547977  
753.000000	6.363734  
753.500000	6.276878  
754.000000	6.305242  
754.500000	6.473969  
755.000000	6.719265  
755.500000	6.903492  
756.000000	6.767992  
756.500000	6.568515  
757.000000	6.338303  
757.500000	6.201310  
758.000000	6.131439  
758.500000	6.223045  
759.000000	6.314113  
759.500000	6.329416  
760.000000	6.115416  
760.500000	5.648742  
761.000000	5.224310  
761.500000	5.129871  
762.000000	5.323272  
762.500000	5.492659  
763.000000	5.392121  
763.500000	5.310984  
764.000000	5.386621  
764.500000	5.540628  
765.000000	5.434560  
765.500000	5.220833  
766.000000	4.927659  
766.500000	4.887772  
767.000000	4.991621  
767.500000	5.107393  
768.000000	5.166446  
768.500000	5.119833  
769.000000	4.928484  
769.500000	4.626871  
770.000000	4.235333  
770.500000	4.046401  
771.000000	4.045522  
771.500000	4.083674  
772.000000	3.987030  
772.500000	3.968863  
773.000000	4.031363  
773.500000	4.128159  
774.000000	4.021507  
774.500000	3.866075  
775.000000	3.906136  
775.500000	3.954136  
776.000000	3.938878  
776.500000	3.793060  
777.000000	3.713386  
777.500000	3.682522  
778.000000	3.862113  
778.500000	4.124666  
779.000000	4.196174  
779.500000	3.847227  
780.000000	3.350590  
780.500000	3.278204  
781.000000	3.460803  
781.500000	3.584984  
782.000000	3.510257  
782.500000	3.478393  
783.000000	3.471659  
783.500000	3.374878  
784.000000	3.269068  
784.500000	3.396287  
785.000000	3.669189  
785.500000	3.755401  
786.000000	3.542363  
786.500000	3.375530  
787.000000	3.287098  
787.500000	3.289462  
788.000000	3.173098  
788.500000	3.278340  
789.000000	3.371272  
789.500000	3.287075  
790.000000	3.031386  
790.500000	2.996818  
791.000000	3.168696  
791.500000	3.300689  
792.000000	3.239219  
792.500000	3.033621  
793.000000	2.869939  
793.500000	2.793628  
794.000000	2.781280  
794.500000	2.806666  
795.000000	2.886075  
795.500000	3.002833  
796.000000	2.997219  
796.500000	2.866863  
797.000000	2.739159  
797.500000	2.747969  
798.000000	2.789280  
798.500000	2.795174  
799.000000	2.785143  
799.500000	2.788159  
800.000000	2.850166  
800.500000	2.923871  
801.000000	2.955454  
801.500000	2.892704  
802.000000	2.787643  
802.500000	2.709810  
803.000000	2.698098  
803.500000	2.750734  
804.000000	2.752583  
804.500000	2.665840  
805.000000	2.514174  
805.500000	2.413098  
806.000000	2.437060  
806.500000	2.599727  
807.000000	2.714090  
807.500000	2.709924  
808.000000	2.634765  
808.500000	2.613893  
809.000000	2.554689  
809.500000	2.501689  
810.000000	2.428280  
810.500000	2.486280  
811.000000	2.557310  
811.500000	2.634575  
812.000000	2.644143  
812.500000	2.490212  
813.000000	2.290242  
813.500000	2.164962  
814.000000	2.249924  
814.500000	2.358681  
815.000000	2.417075  
815.500000	2.410863  
816.000000	2.372484  
816.500000	2.430901  
817.000000	2.488924  
817.500000	2.662856  
818.000000	2.689765  
818.500000	2.748250  
819.000000	2.694719  
819.500000	2.745522  
820.000000	2.723522  
820.500000	2.782401  
821.000000	2.817803  
821.500000	2.929651  
822.000000	2.998015  
822.500000	3.124772  
823.000000	3.253454  
823.500000	3.348727  
824.000000	3.253750  
824.500000	3.024022  
825.000000	2.780325  
825.500000	2.691575  
826.000000	2.685204  
826.500000	2.698037  
827.000000	2.718446  
827.500000	2.772469  
828.000000	2.739712  
828.500000	2.529893  
829.000000	2.300621  
829.500000	2.248136  
830.000000	2.459636  
830.500000	2.544787  
831.000000	2.465265  
831.500000	2.217128  
832.000000	2.001901  
832.500000	1.884522  
833.000000	1.924250  
833.500000	1.969022  
834.000000	1.914189  
834.500000	1.754030  
835.000000	1.619757  
835.500000	1.524901  
836.000000	1.473727  
836.500000	1.284159  
837.000000	1.161439  
837.500000	1.041575  
838.000000	1.103393  
838.500000	1.141143  
839.000000	1.200537  
839.500000	1.117212  
840.000000	0.986356  
840.500000	0.829810  
841.000000	0.812636  
841.500000	0.934469  
842.000000	1.034151  
842.500000	0.982522  
843.000000	0.859712  
843.500000	0.795530  
844.000000	0.851613  
844.500000	0.907681  
845.000000	0.885265  
845.500000	0.782621  
846.000000	0.746189  
846.500000	0.602159  
847.000000	0.406348  
847.500000	0.207969  
848.000000	0.300363  
848.500000	0.451772  
849.000000	0.573462  
849.500000	0.499810  
850.000000	0.514242  
850.500000	0.426090  
851.000000	0.282530  
851.500000	0.109568  
852.000000	0.147454  
852.500000	0.321901  
853.000000	0.549886  
853.500000	0.638909  
854.000000	0.541825  
854.500000	0.351575  
855.000000	0.201893  
855.500000	0.231295  
856.000000	0.277780  
856.500000	0.269227  
857.000000	0.218000  
857.500000	0.304371  
858.000000	0.426181  
858.500000	0.462871  
859.000000	0.248189  
859.500000	0.037803  
860.000000	-0.023143 
860.500000	0.093242  
861.000000	0.148143  
861.500000	0.219583  
862.000000	0.209856  
862.500000	0.326522  
863.000000	0.396257  
863.500000	0.406909  
864.000000	0.196469  
864.500000	0.002916  
865.000000	-0.076810 
865.500000	-0.023098 
866.000000	-0.056886 
866.500000	-0.085477 
867.000000	-0.055901 
867.500000	0.027628  
868.000000	0.014128  
868.500000	-0.001719 
869.000000	-0.021454 
869.500000	0.066780  
870.000000	0.108825  
870.500000	0.143318  
871.000000	0.046378  
871.500000	-0.085015 
872.000000	-0.207939 
872.500000	-0.150454 
873.000000	-0.005166 
873.500000	0.084098  
874.000000	0.022507  
874.500000	-0.054484 
875.000000	-0.079174 
875.500000	-0.068022 
876.000000	-0.088068 
876.500000	-0.041340 
877.000000	0.052871  
877.500000	0.145507  
878.000000	0.190537  
878.500000	0.239121  
879.000000	0.220659  
879.500000	0.155348  
880.000000	0.127310  
880.500000	0.095992  
881.000000	0.041174  
881.500000	-0.022098 
882.000000	0.000946  
882.500000	0.061181  
883.000000	0.062901  
883.500000	0.037242  
884.000000	0.020393  
884.500000	0.017712  
885.000000	-0.008196 
885.500000	0.029613  
886.000000	0.018871  
886.500000	0.043962  
887.000000	-0.016628 
887.500000	-0.084181 
888.000000	-0.172257 
888.500000	-0.157204 
889.000000	-0.131083 
889.500000	-0.173590 
890.000000	-0.246689 
890.500000	-0.247757 
891.000000	-0.100469 
891.500000	0.035265  
892.000000	0.147431  
892.500000	0.030462  
893.000000	-0.070818 
893.500000	-0.070613 
894.000000	0.055818  
894.500000	0.058886  
895.000000	-0.042007 
895.500000	-0.113750 
896.000000	-0.060613 
896.500000	0.005742  
897.000000	0.038151  
897.500000	0.039303  
898.000000	0.034159  
898.500000	-0.076212 
899.000000	-0.196128 
899.500000	-0.217121 
900.000000	0.099431  
900.500000	0.717000  

