PE FL                   SPECTRUM    ASCII       PEDS        1.60        
  -1
S12#04.SP
24/04/15
15:00:33.00
24/04/15
15:01:59.00
Jan

900.500000
1









LS55
405.00
5.00
5.00
SCAN
1
20
100
100
0
400
0
1
0
1
5
ON
900 405 
1 0 0
#HDR
-1
-1
#GR
NM

0.00002384185791015625
0.0
450.000000
0.500000
902
8
338.812401
-0.206446
#DATA
450.000000	-0.034000  
450.500000	-0.153469  
451.000000	-0.092977  
451.500000	0.144484   
452.000000	0.199181   
452.500000	0.073681   
453.000000	-0.174840  
453.500000	-0.206446  
454.000000	-0.153962  
454.500000	0.017318   
455.000000	0.058515   
455.500000	0.110878   
456.000000	0.160659   
456.500000	0.247856   
457.000000	0.269143   
457.500000	0.092424   
458.000000	-0.060143  
458.500000	-0.028416  
459.000000	0.098204   
459.500000	0.064659   
460.000000	0.026613   
460.500000	0.098446   
461.000000	0.188643   
461.500000	0.122371   
462.000000	-0.039257  
462.500000	-0.095204  
463.000000	-0.061333  
463.500000	0.031409   
464.000000	0.175787   
464.500000	0.212462   
465.000000	0.110166   
465.500000	-0.054772  
466.000000	-0.121424  
466.500000	-0.083750  
467.000000	0.055098   
467.500000	0.164840   
468.000000	0.237583   
468.500000	0.217575   
469.000000	0.081628   
469.500000	0.026863   
470.000000	-0.002742  
470.500000	0.173840   
471.000000	0.243030   
471.500000	0.206939   
472.000000	-0.006878  
472.500000	-0.047090  
473.000000	-0.062712  
473.500000	0.008325   
474.000000	0.081537   
474.500000	0.184212   
475.000000	0.235250   
475.500000	0.155196   
476.000000	0.075598   
476.500000	0.169666   
477.000000	0.419886   
477.500000	0.616507   
478.000000	0.604106   
478.500000	0.370954   
479.000000	0.073106   
479.500000	-0.123878  
480.000000	-0.188212  
480.500000	-0.190545  
481.000000	-0.126159  
481.500000	-0.000962  
482.000000	0.197795   
482.500000	0.249560   
483.000000	0.126045   
483.500000	-0.066893  
484.000000	-0.089689  
484.500000	-0.023371  
485.000000	0.120348   
485.500000	0.222750   
486.000000	0.252848   
486.500000	0.206810   
487.000000	0.155901   
487.500000	0.126462   
488.000000	0.004348   
488.500000	0.024325   
489.000000	0.142757   
489.500000	0.306477   
490.000000	0.187363   
490.500000	-0.013537  
491.000000	-0.073378  
491.500000	-0.013386  
492.000000	0.049553   
492.500000	0.041303   
493.000000	0.029575   
493.500000	0.033484   
494.000000	0.180113   
494.500000	0.323265   
495.000000	0.437704   
495.500000	0.467787   
496.000000	0.499159   
496.500000	0.467386   
497.000000	0.409931   
497.500000	0.413068   
498.000000	0.672075   
498.500000	0.861053   
499.000000	0.866000   
499.500000	0.739075   
500.000000	0.632250   
500.500000	0.656651   
501.000000	0.733871   
501.500000	0.838749   
502.000000	0.869530   
502.500000	1.067250   
503.000000	1.260454   
503.500000	1.387818   
504.000000	1.214393   
504.500000	1.125280   
505.000000	1.272886   
505.500000	1.574704   
506.000000	1.601174   
506.500000	1.724083   
507.000000	1.906318   
507.500000	2.171348   
508.000000	2.309196   
508.500000	2.587227   
509.000000	2.864181   
509.500000	2.979787   
510.000000	2.828946   
510.500000	2.766833   
511.000000	2.763553   
511.500000	2.731643   
512.000000	2.734522   
512.500000	2.887037   
513.000000	3.092045   
513.500000	3.202954   
514.000000	3.193522   
514.500000	3.147212   
515.000000	3.070621   
515.500000	3.079325   
516.000000	3.188810   
516.500000	3.352219   
517.000000	3.543295   
517.500000	3.731000   
518.000000	3.775181   
518.500000	3.584946   
519.000000	3.401856   
519.500000	3.427136   
520.000000	3.807015   
520.500000	3.987295   
521.000000	3.980803   
521.500000	3.852515   
522.000000	3.947250   
522.500000	3.918204   
523.000000	3.826803   
523.500000	3.746030   
524.000000	3.874416   
524.500000	4.127598   
525.000000	4.335446   
525.500000	4.487795   
526.000000	4.359325   
526.500000	4.330265   
527.000000	4.384083   
527.500000	4.499189   
528.000000	4.354136   
528.500000	4.433977   
529.000000	4.920590   
529.500000	5.707159   
530.000000	6.250893   
530.500000	6.368916   
531.000000	6.257151   
531.500000	6.142280   
532.000000	6.367530   
532.500000	6.787234   
533.000000	7.207734   
533.500000	7.470719   
534.000000	7.762310   
534.500000	7.958568   
535.000000	8.098825   
535.500000	8.319318   
536.000000	8.761606   
536.500000	9.507143   
537.000000	10.063878  
537.500000	10.722492  
538.000000	11.513651  
538.500000	12.578696  
539.000000	13.155939  
539.500000	13.471015  
540.000000	13.565507  
540.500000	14.081128  
541.000000	14.589196  
541.500000	14.897386  
542.000000	14.636196  
542.500000	14.278492  
543.000000	13.944356  
543.500000	13.836734  
544.000000	13.466575  
544.500000	13.125477  
545.000000	12.723643  
545.500000	12.281674  
546.000000	11.700151  
546.500000	11.122500  
547.000000	10.565689  
547.500000	9.770189   
548.000000	8.999545   
548.500000	8.382060   
549.000000	8.096901   
549.500000	7.690030   
550.000000	7.046909   
550.500000	6.142825   
551.000000	5.511598   
551.500000	5.211522   
552.000000	4.810462   
552.500000	4.375537   
553.000000	4.132257   
553.500000	4.196712   
554.000000	3.998090   
554.500000	3.679113   
555.000000	3.535000   
555.500000	3.718310   
556.000000	3.842734   
556.500000	3.741772   
557.000000	3.575651   
557.500000	3.382659   
558.000000	3.387174   
558.500000	3.390712   
559.000000	3.415946   
559.500000	3.220431   
560.000000	3.079454   
560.500000	2.945068   
561.000000	3.043727   
561.500000	3.327159   
562.000000	3.693583   
562.500000	3.888954   
563.000000	3.875621   
563.500000	3.637856   
564.000000	3.401575   
564.500000	3.266780   
565.000000	3.295083   
565.500000	3.410780   
566.000000	3.552431   
566.500000	3.646893   
567.000000	3.668553   
567.500000	3.567348   
568.000000	3.371446   
568.500000	3.196833   
569.000000	3.119318   
569.500000	3.286856   
570.000000	3.458393   
570.500000	3.523689   
571.000000	3.354386   
571.500000	3.394515   
572.000000	3.574659   
572.500000	3.700530   
573.000000	3.515469   
573.500000	3.333613   
574.000000	3.347909   
574.500000	3.495977   
575.000000	3.542318   
575.500000	3.448871   
576.000000	3.395492   
576.500000	3.370446   
577.000000	3.484696   
577.500000	3.531590   
578.000000	3.741151   
578.500000	3.867507   
579.000000	3.911810   
579.500000	3.649356   
580.000000	3.676000   
580.500000	3.797803   
581.000000	3.832848   
581.500000	3.537007   
582.000000	3.358863   
582.500000	3.676507   
583.000000	4.236575   
583.500000	4.564500   
584.000000	4.382863   
584.500000	3.945174   
585.000000	3.703583   
585.500000	3.796689   
586.000000	3.893553   
586.500000	3.862621   
587.000000	4.031189   
587.500000	4.305606   
588.000000	4.496568   
588.500000	4.410901   
589.000000	4.217356   
589.500000	3.975446   
590.000000	3.787340   
590.500000	3.810022   
591.000000	4.060825   
591.500000	4.296219   
592.000000	4.361325   
592.500000	4.526712   
593.000000	4.832121   
593.500000	5.111810   
594.000000	5.076219   
594.500000	4.967537   
595.000000	4.789431   
595.500000	4.730719   
596.000000	4.615749   
596.500000	4.583515   
597.000000	4.603833   
597.500000	4.847439   
598.000000	5.111681   
598.500000	5.503931   
599.000000	5.607174   
599.500000	5.594242   
600.000000	5.444068   
600.500000	5.617757   
601.000000	5.793530   
601.500000	6.115560   
602.000000	5.948143   
602.500000	5.892530   
603.000000	5.828303   
603.500000	6.261098   
604.000000	6.534462   
604.500000	6.840128   
605.000000	6.656590   
605.500000	6.759128   
606.000000	7.148681   
606.500000	7.779212   
607.000000	7.927098   
607.500000	7.745492   
608.000000	7.780575   
608.500000	8.265212   
609.000000	8.724780   
609.500000	8.717174   
610.000000	8.696219   
610.500000	8.852121   
611.000000	9.343446   
611.500000	9.820431   
612.000000	10.275628  
612.500000	10.761250  
613.000000	11.211939  
613.500000	11.443590  
614.000000	11.650939  
614.500000	12.160022  
615.000000	12.630787  
615.500000	12.836113  
616.000000	12.903113  
616.500000	13.336750  
617.000000	14.077833  
617.500000	14.748583  
618.000000	15.076257  
618.500000	15.550060  
619.000000	16.168575  
619.500000	16.781196  
620.000000	17.011000  
620.500000	17.456037  
621.000000	18.248780  
621.500000	19.276818  
622.000000	19.593234  
622.500000	19.853795  
623.000000	20.485704  
623.500000	21.601856  
624.000000	22.405128  
624.500000	22.899719  
625.000000	23.491257  
625.500000	24.492295  
626.000000	25.786340  
626.500000	26.784780  
627.000000	27.755022  
627.500000	28.385022  
628.000000	29.297681  
628.500000	30.436681  
629.000000	32.437734  
629.500000	34.219295  
630.000000	35.409545  
630.500000	36.060106  
631.000000	37.011189  
631.500000	38.351606  
632.000000	39.619159  
632.500000	41.077363  
633.000000	43.062568  
633.500000	45.281560  
634.000000	47.024598  
634.500000	48.766477  
635.000000	50.556310  
635.500000	52.122219  
636.000000	53.695371  
636.500000	55.311045  
637.000000	57.269439  
637.500000	59.091507  
638.000000	61.297075  
638.500000	63.362007  
639.000000	66.133863  
639.500000	68.818090  
640.000000	71.635386  
640.500000	73.920204  
641.000000	75.494424  
641.500000	77.124742  
642.000000	79.090772  
642.500000	82.079136  
643.000000	85.412000  
643.500000	89.211575  
644.000000	92.255106  
644.500000	94.779416  
645.000000	97.084386  
645.500000	99.845469  
646.000000	103.638984 
646.500000	107.336795 
647.000000	110.625522 
647.500000	113.048712 
648.000000	116.274651 
648.500000	119.715704 
649.000000	123.394272 
649.500000	126.473916 
650.000000	130.413803 
650.500000	134.437916 
651.000000	138.327810 
651.500000	140.887015 
652.000000	144.191992 
652.500000	148.097545 
653.000000	152.914598 
653.500000	156.758848 
654.000000	159.911916 
654.500000	163.212772 
655.000000	167.900590 
655.500000	173.199825 
656.000000	177.447181 
656.500000	181.583181 
657.000000	185.750840 
657.500000	190.516681 
658.000000	194.096030 
658.500000	197.744106 
659.000000	201.249196 
659.500000	205.370886 
660.000000	210.759689 
660.500000	216.932310 
661.000000	222.140325 
661.500000	224.475977 
662.000000	226.339068 
662.500000	229.756924 
663.000000	235.184409 
663.500000	240.165545 
664.000000	244.048780 
664.500000	246.363143 
665.000000	248.465500 
665.500000	251.130250 
666.000000	255.183787 
666.500000	261.417901 
667.000000	268.107878 
667.500000	273.390106 
668.000000	275.884401 
668.500000	278.268507 
669.000000	281.161916 
669.500000	285.588833 
670.000000	288.713000 
670.500000	292.234045 
671.000000	295.504939 
671.500000	299.588196 
672.000000	301.957598 
672.500000	302.721030 
673.000000	303.833212 
673.500000	307.595295 
674.000000	312.165477 
674.500000	315.079295 
675.000000	316.358848 
675.500000	317.314962 
676.000000	318.721833 
676.500000	320.450840 
677.000000	323.108295 
677.500000	326.650871 
678.000000	329.397265 
678.500000	331.095772 
679.000000	331.878590 
679.500000	331.743454 
680.000000	332.420613 
680.500000	333.604159 
681.000000	335.773234 
681.500000	337.068227 
682.000000	337.927363 
682.500000	336.774909 
683.000000	335.728818 
683.500000	335.668575 
684.000000	337.538666 
684.500000	338.812401 
685.000000	337.462704 
685.500000	335.277189 
686.000000	333.450477 
686.500000	332.247022 
687.000000	329.649128 
687.500000	327.324053 
688.000000	326.406628 
688.500000	326.814712 
689.000000	324.839689 
689.500000	319.737204 
690.000000	313.977962 
690.500000	311.800750 
691.000000	311.396431 
691.500000	309.393371 
692.000000	303.649393 
692.500000	297.843151 
693.000000	294.113295 
693.500000	291.494969 
694.000000	287.337431 
694.500000	281.507750 
695.000000	275.176174 
695.500000	269.972810 
696.000000	266.431628 
696.500000	263.087727 
697.000000	257.839022 
697.500000	251.168287 
698.000000	244.735969 
698.500000	240.172909 
699.000000	235.952825 
699.500000	231.517742 
700.000000	225.791522 
700.500000	219.584143 
701.000000	212.975310 
701.500000	207.467439 
702.000000	202.025598 
702.500000	196.052242 
703.000000	190.318818 
703.500000	186.554969 
704.000000	183.857628 
704.500000	178.898393 
705.000000	172.365598 
705.500000	165.811333 
706.000000	161.934606 
706.500000	157.680848 
707.000000	153.545757 
707.500000	148.544787 
708.000000	144.359583 
708.500000	140.083666 
709.000000	137.142378 
709.500000	133.936310 
710.000000	130.822340 
710.500000	126.827174 
711.000000	123.761787 
711.500000	120.548068 
712.000000	117.192651 
712.500000	113.138234 
713.000000	110.451007 
713.500000	108.485310 
714.000000	106.549977 
714.500000	102.144113 
715.000000	96.900386  
715.500000	92.503689  
716.000000	90.399810  
716.500000	88.065901  
717.000000	85.193954  
717.500000	81.738098  
718.000000	78.973219  
718.500000	76.157969  
719.000000	73.975530  
719.500000	72.888159  
720.000000	71.931787  
720.500000	69.631303  
721.000000	66.755772  
721.500000	64.473833  
722.000000	63.192015  
722.500000	61.112568  
723.000000	58.803484  
723.500000	56.323575  
724.000000	55.129212  
724.500000	53.899007  
725.000000	52.641992  
725.500000	51.008151  
726.000000	49.580643  
726.500000	48.138840  
727.000000	46.429909  
727.500000	44.796530  
728.000000	43.437030  
728.500000	42.460295  
729.000000	41.337863  
729.500000	40.341954  
730.000000	39.210825  
730.500000	37.956689  
731.000000	36.651787  
731.500000	35.346560  
732.000000	34.020628  
732.500000	32.689681  
733.000000	31.595265  
733.500000	30.793280  
734.000000	30.223606  
734.500000	29.287719  
735.000000	28.242295  
735.500000	27.260992  
736.000000	27.053924  
736.500000	26.663431  
737.000000	26.123734  
737.500000	25.160287  
738.000000	24.616689  
738.500000	23.856787  
739.000000	23.138916  
739.500000	22.350757  
740.000000	22.205500  
740.500000	21.983939  
741.000000	21.661560  
741.500000	20.914106  
742.000000	20.107242  
742.500000	19.328113  
743.000000	18.480401  
743.500000	17.542000  
744.000000	16.718909  
744.500000	16.305651  
745.000000	16.142045  
745.500000	16.029181  
746.000000	15.743848  
746.500000	15.594765  
747.000000	15.301606  
747.500000	15.104340  
748.000000	14.799227  
748.500000	14.378681  
749.000000	13.482992  
749.500000	12.628734  
750.000000	12.156053  
750.500000	12.278712  
751.000000	12.259871  
751.500000	11.857719  
752.000000	11.208522  
752.500000	10.830204  
753.000000	10.809742  
753.500000	11.051272  
754.000000	11.161833  
754.500000	11.309833  
755.000000	11.039030  
755.500000	10.520530  
756.000000	9.803356   
756.500000	9.515477   
757.000000	9.586515   
757.500000	9.794227   
758.000000	9.488651   
758.500000	9.092651   
759.000000	8.489439   
759.500000	8.139045   
760.000000	7.834757   
760.500000	8.094409   
761.000000	8.262939   
761.500000	8.336787   
762.000000	7.957348   
762.500000	7.667621   
763.000000	7.542143   
763.500000	7.505469   
764.000000	7.414727   
764.500000	7.237598   
765.000000	7.106984   
765.500000	7.034803   
766.000000	7.020598   
766.500000	6.957992   
767.000000	6.801045   
767.500000	6.669219   
768.000000	6.412196   
768.500000	6.255515   
769.000000	6.224234   
769.500000	6.265371   
770.000000	5.974704   
770.500000	5.759431   
771.000000	5.685886   
771.500000	5.785272   
772.000000	5.575196   
772.500000	5.330878   
773.000000	5.167348   
773.500000	5.248727   
774.000000	5.117295   
774.500000	5.015621   
775.000000	4.757371   
775.500000	4.560939   
776.000000	4.271212   
776.500000	4.192590   
777.000000	4.122325   
777.500000	4.298068   
778.000000	4.235537   
778.500000	4.151780   
779.000000	4.046871   
779.500000	4.253522   
780.000000	4.346166   
780.500000	4.154848   
781.000000	3.750886   
781.500000	3.630818   
782.000000	3.754916   
782.500000	3.845560   
783.000000	3.805863   
783.500000	3.735212   
784.000000	3.666689   
784.500000	3.738265   
785.000000	3.886340   
785.500000	4.030674   
786.000000	3.862765   
786.500000	3.558098   
787.000000	3.340174   
787.500000	3.345765   
788.000000	3.402409   
788.500000	3.432477   
789.000000	3.461492   
789.500000	3.409553   
790.000000	3.310106   
790.500000	3.172856   
791.000000	3.115462   
791.500000	3.097560   
792.000000	3.138772   
792.500000	3.199598   
793.000000	3.230386   
793.500000	3.077250   
794.000000	2.874037   
794.500000	2.748287   
795.000000	2.845568   
795.500000	2.982954   
796.000000	3.000075   
796.500000	2.855939   
797.000000	2.665166   
797.500000	2.609575   
798.000000	2.701674   
798.500000	2.847242   
799.000000	2.848795   
799.500000	2.775659   
800.000000	2.725189   
800.500000	2.835219   
801.000000	2.967560   
801.500000	3.026803   
802.000000	2.797477   
802.500000	2.507083   
803.000000	2.356507   
803.500000	2.463840   
804.000000	2.541333   
804.500000	2.566212   
805.000000	2.430772   
805.500000	2.294651   
806.000000	2.214931   
806.500000	2.314159   
807.000000	2.402416   
807.500000	2.366325   
808.000000	2.385696   
808.500000	2.385484   
809.000000	2.170295   
809.500000	1.738681   
810.000000	1.563143   
810.500000	1.720280   
811.000000	1.919689   
811.500000	1.950303   
812.000000	1.921166   
812.500000	1.917272   
813.000000	2.034689   
813.500000	2.159356   
814.000000	2.146939   
814.500000	1.902424   
815.000000	1.712946   
815.500000	1.686977   
816.000000	1.606484   
816.500000	1.537015   
817.000000	1.484931   
817.500000	1.591545   
818.000000	1.461674   
818.500000	1.508734   
819.000000	1.659234   
819.500000	2.131977   
820.000000	2.322053   
820.500000	2.224053   
821.000000	2.008719   
821.500000	2.084378   
822.000000	2.389060   
822.500000	2.550696   
823.000000	2.449462   
823.500000	2.299810   
824.000000	2.368742   
824.500000	2.503598   
825.000000	2.529022   
825.500000	2.362037   
826.000000	2.228136   
826.500000	2.149348   
827.000000	2.221621   
827.500000	2.256234   
828.000000	2.092750   
828.500000	1.794446   
829.000000	1.711689   
829.500000	1.935522   
830.000000	2.194674   
830.500000	2.147196   
831.000000	1.848500   
831.500000	1.610628   
832.000000	1.472545   
832.500000	1.288424   
833.000000	1.084515   
833.500000	0.958893   
834.000000	0.979916   
834.500000	1.062462   
835.000000	1.029568   
835.500000	0.975462   
836.000000	0.960174   
836.500000	1.046113   
837.000000	1.045621   
837.500000	0.899840   
838.000000	0.764469   
838.500000	0.728401   
839.000000	0.873636   
839.500000	0.878878   
840.000000	0.814553   
840.500000	0.708643   
841.000000	0.804674   
841.500000	0.840378   
842.000000	0.730318   
842.500000	0.556363   
843.000000	0.588772   
843.500000	0.669265   
844.000000	0.634325   
844.500000	0.521030   
845.000000	0.511325   
845.500000	0.510272   
846.000000	0.454931   
846.500000	0.349128   
847.000000	0.303931   
847.500000	0.311189   
848.000000	0.335265   
848.500000	0.391159   
849.000000	0.417234   
849.500000	0.391621   
850.000000	0.401325   
850.500000	0.403106   
851.000000	0.393174   
851.500000	0.256083   
852.000000	0.152022   
852.500000	0.120272   
853.000000	0.213893   
853.500000	0.200537   
854.000000	0.098166   
854.500000	0.098696   
855.000000	0.245530   
855.500000	0.374257   
856.000000	0.242030   
856.500000	0.074522   
857.000000	-0.075234  
857.500000	-0.137409  
858.000000	-0.139250  
858.500000	0.015424   
859.000000	0.164598   
859.500000	0.132280   
860.000000	-0.002621  
860.500000	-0.065446  
861.000000	-0.013984  
861.500000	0.057151   
862.000000	0.056098   
862.500000	0.009424   
863.000000	-0.120886  
863.500000	-0.163000  
864.000000	-0.145090  
864.500000	0.016462   
865.000000	0.120356   
865.500000	0.189280   
866.000000	0.119522   
866.500000	0.107977   
867.000000	0.079560   
867.500000	0.016704   
868.000000	-0.110636  
868.500000	-0.138196  
869.000000	-0.077674  
869.500000	-0.021848  
870.000000	-0.051780  
870.500000	-0.036954  
871.000000	0.058090   
871.500000	0.155189   
872.000000	0.110462   
872.500000	-0.025242  
873.000000	-0.084272  
873.500000	-0.015750  
874.000000	-0.003825  
874.500000	-0.103954  
875.000000	-0.191681  
875.500000	-0.141704  
876.000000	-0.052712  
876.500000	0.034969   
877.000000	-0.006840  
877.500000	-0.040287  
878.000000	-0.037272  
878.500000	0.092810   
879.000000	0.174446   
879.500000	0.128712   
880.000000	0.022030   
880.500000	-0.039015  
881.000000	-0.058446  
881.500000	-0.093727  
882.000000	-0.073962  
882.500000	-0.062878  
883.000000	-0.060689  
883.500000	-0.002348  
884.000000	0.086037   
884.500000	0.156803   
885.000000	0.182037   
885.500000	0.232878   
886.000000	0.252916   
886.500000	0.179106   
887.000000	0.038439   
887.500000	-0.034924  
888.000000	-0.004356  
888.500000	0.046553   
889.000000	0.064068   
889.500000	0.020075   
890.000000	-0.036015  
890.500000	-0.070204  
891.000000	-0.052931  
891.500000	-0.022734  
892.000000	-0.028772  
892.500000	-0.042136  
893.000000	-0.040333  
893.500000	-0.002143  
894.000000	0.086560   
894.500000	0.183303   
895.000000	0.201409   
895.500000	0.105878   
896.000000	-0.054121  
896.500000	-0.173068  
897.000000	-0.162303  
897.500000	-0.122174  
898.000000	-0.099772  
898.500000	-0.155007  
899.000000	-0.198128  
899.500000	-0.155893  
900.000000	-0.002719  
900.500000	0.198000   

