PE FL                   SPECTRUM    ASCII       PEDS        1.60        
  -1
S12R#22.SP
24/04/15
16:09:37.00
24/04/15
16:11:03.00
Jan

900.500000
1









LS55
405.00
5.00
5.00
SCAN
1
20
100
100
0
400
0
1
0
1
5
ON
900 405 
1 0 0
#HDR
-1
-1
#GR
NM

0.00002384185791015625
0.0
450.000000
0.500000
902
8
179.244553
-0.699999
#DATA
450.000000	-0.659000  
450.500000	-0.005840  
451.000000	0.096946   
451.500000	-0.181522  
452.000000	-0.324113  
452.500000	-0.305863  
453.000000	-0.243348  
453.500000	-0.180462  
454.000000	-0.082772  
454.500000	-0.050424  
455.000000	-0.031992  
455.500000	0.063643   
456.000000	0.239106   
456.500000	0.327492   
457.000000	0.227075   
457.500000	0.018787   
458.000000	-0.087704  
458.500000	-0.041174  
459.000000	0.047477   
459.500000	0.000113   
460.000000	-0.089212  
460.500000	0.028219   
461.000000	0.219166   
461.500000	0.260083   
462.000000	0.029992   
462.500000	-0.106659  
463.000000	-0.154265  
463.500000	-0.018000  
464.000000	0.019621   
464.500000	0.045674   
465.000000	-0.005325  
465.500000	0.054537   
466.000000	0.128242   
466.500000	0.220530   
467.000000	0.182515   
467.500000	0.154371   
468.000000	-0.017999  
468.500000	-0.252643  
469.000000	-0.385257  
469.500000	-0.248810  
470.000000	-0.029886  
470.500000	0.033545   
471.000000	-0.012053  
471.500000	-0.068780  
472.000000	0.000787   
472.500000	0.153075   
473.000000	0.308560   
473.500000	0.297348   
474.000000	0.165356   
474.500000	0.023515   
475.000000	-0.028159  
475.500000	-0.043325  
476.000000	-0.103909  
476.500000	-0.218590  
477.000000	-0.292348  
477.500000	-0.311719  
478.000000	-0.272166  
478.500000	-0.165719  
479.000000	-0.018287  
479.500000	0.103719   
480.000000	0.115621   
480.500000	0.102696   
481.000000	0.063621   
481.500000	0.039265   
482.000000	-0.037545  
482.500000	-0.115159  
483.000000	-0.212060  
483.500000	-0.238666  
484.000000	-0.171227  
484.500000	-0.029227  
485.000000	0.014151   
485.500000	-0.022636  
486.000000	-0.057742  
486.500000	0.025030   
487.000000	0.126750   
487.500000	0.146537   
488.000000	0.065477   
488.500000	-0.012924  
489.000000	0.013780   
489.500000	0.147356   
490.000000	0.284431   
490.500000	0.419545   
491.000000	0.431598   
491.500000	0.291348   
492.000000	0.013681   
492.500000	-0.124719  
493.000000	-0.041833  
493.500000	0.200318   
494.000000	0.384689   
494.500000	0.469583   
495.000000	0.521439   
495.500000	0.490878   
496.000000	0.511378   
496.500000	0.542984   
497.000000	0.609787   
497.500000	0.646257   
498.000000	0.652174   
498.500000	0.686848   
499.000000	0.759340   
499.500000	0.850030   
500.000000	0.919522   
500.500000	0.828189   
501.000000	0.674075   
501.500000	0.567651   
502.000000	0.684060   
502.500000	0.775765   
503.000000	0.979863   
503.500000	1.050590   
504.000000	1.219484   
504.500000	1.265962   
505.000000	1.382643   
505.500000	1.419280   
506.000000	1.421621   
506.500000	1.281712   
507.000000	1.290689   
507.500000	1.563121   
508.000000	1.991946   
508.500000	2.250992   
509.000000	2.134659   
509.500000	2.016424   
510.000000	2.185909   
510.500000	2.408530   
511.000000	2.406462   
511.500000	2.292075   
512.000000	2.290287   
512.500000	2.305962   
513.000000	2.361477   
513.500000	2.582924   
514.000000	2.999204   
514.500000	3.219424   
515.000000	3.144954   
515.500000	3.055409   
516.000000	3.177765   
516.500000	3.295310   
517.000000	3.291500   
517.500000	3.154560   
518.000000	3.007871   
518.500000	3.097568   
519.000000	3.369318   
519.500000	3.630750   
520.000000	3.608121   
520.500000	3.266068   
521.000000	3.020712   
521.500000	3.139060   
522.000000	3.534416   
522.500000	3.744901   
523.000000	3.728621   
523.500000	3.565992   
524.000000	3.641840   
524.500000	3.901545   
525.000000	4.058007   
525.500000	3.943772   
526.000000	3.746946   
526.500000	3.694333   
527.000000	3.771992   
527.500000	4.093189   
528.000000	4.446848   
528.500000	4.830500   
529.000000	5.064113   
529.500000	5.267310   
530.000000	5.290931   
530.500000	5.242378   
531.000000	5.201348   
531.500000	5.756825   
532.000000	6.376515   
532.500000	6.938363   
533.000000	7.037272   
533.500000	7.053015   
534.000000	6.831219   
534.500000	6.921386   
535.000000	7.085719   
535.500000	7.599477   
536.000000	8.098439   
536.500000	8.747704   
537.000000	9.387946   
537.500000	9.935325   
538.000000	10.326765  
538.500000	10.649583  
539.000000	11.315083  
539.500000	12.104287  
540.000000	12.744696  
540.500000	13.229083  
541.000000	13.837189  
541.500000	14.382522  
542.000000	14.311068  
542.500000	13.886825  
543.000000	13.289727  
543.500000	12.884469  
544.000000	12.179553  
544.500000	11.647265  
545.000000	11.213878  
545.500000	10.992189  
546.000000	10.604628  
546.500000	9.955583   
547.000000	8.993371   
547.500000	8.181765   
548.000000	7.761090   
548.500000	7.444469   
549.000000	7.033810   
549.500000	6.680098   
550.000000	6.428575   
550.500000	6.031530   
551.000000	5.370810   
551.500000	4.737068   
552.000000	4.320098   
552.500000	4.075015   
553.000000	3.815939   
553.500000	3.660863   
554.000000	3.503674   
554.500000	3.581348   
555.000000	3.623537   
555.500000	3.603424   
556.000000	3.265242   
556.500000	3.047128   
557.000000	2.937780   
557.500000	3.141886   
558.000000	3.378439   
558.500000	3.594568   
559.000000	3.465174   
559.500000	3.143356   
560.000000	2.933053   
560.500000	2.982712   
561.000000	3.115060   
561.500000	3.150787   
562.000000	3.161946   
562.500000	3.128257   
563.000000	3.102734   
563.500000	3.114954   
564.000000	3.263363   
564.500000	3.358181   
565.000000	3.157886   
565.500000	2.893984   
566.000000	2.899393   
566.500000	3.147515   
567.000000	3.257431   
567.500000	3.198204   
568.000000	3.130022   
568.500000	3.174159   
569.000000	3.119257   
569.500000	3.045159   
570.000000	3.037098   
570.500000	3.142780   
571.000000	3.218159   
571.500000	3.253007   
572.000000	3.175287   
572.500000	3.081181   
573.000000	3.087939   
573.500000	3.278257   
574.000000	3.435204   
574.500000	3.452083   
575.000000	3.440803   
575.500000	3.473121   
576.000000	3.420946   
576.500000	3.278522   
577.000000	3.144757   
577.500000	3.197598   
578.000000	3.241128   
578.500000	3.392333   
579.000000	3.564530   
579.500000	3.790742   
580.000000	3.711530   
580.500000	3.583401   
581.000000	3.370250   
581.500000	3.314325   
582.000000	3.252545   
582.500000	3.272022   
583.000000	3.372909   
583.500000	3.514318   
584.000000	3.691234   
584.500000	3.848969   
585.000000	3.895893   
585.500000	3.734727   
586.000000	3.445946   
586.500000	3.253090   
587.000000	3.218022   
587.500000	3.265621   
588.000000	3.354030   
588.500000	3.531727   
589.000000	3.686159   
589.500000	3.742666   
590.000000	3.702295   
590.500000	3.926727   
591.000000	4.248159   
591.500000	4.563015   
592.000000	4.346000   
592.500000	4.018681   
593.000000	3.810613   
593.500000	4.227151   
594.000000	4.633265   
594.500000	4.472242   
595.000000	3.873492   
595.500000	3.751666   
596.000000	4.279893   
596.500000	4.777227   
597.000000	4.903666   
597.500000	4.885454   
598.000000	4.929575   
598.500000	5.007575   
599.000000	4.980696   
599.500000	5.107575   
600.000000	5.267878   
600.500000	5.421613   
601.000000	5.461803   
601.500000	5.437378   
602.000000	5.495909   
602.500000	5.636257   
603.000000	5.934931   
603.500000	6.221765   
604.000000	6.569151   
604.500000	6.764613   
605.000000	6.944583   
605.500000	7.017954   
606.000000	7.064931   
606.500000	6.915113   
607.000000	6.857136   
607.500000	6.979704   
608.000000	7.236340   
608.500000	7.380772   
609.000000	7.619916   
609.500000	8.137295   
610.000000	8.890409   
610.500000	9.202492   
611.000000	9.227780   
611.500000	9.177212   
612.000000	9.439651   
612.500000	9.621454   
613.000000	9.893590   
613.500000	10.422946  
614.000000	11.199931  
614.500000	12.052318  
615.000000	12.524537  
615.500000	12.787113  
616.000000	12.871272  
616.500000	13.211765  
617.000000	13.606189  
617.500000	14.142325  
618.000000	14.775196  
618.500000	15.452545  
619.000000	15.934954  
619.500000	15.956212  
620.000000	16.187909  
620.500000	16.850333  
621.000000	17.832636  
621.500000	18.552878  
622.000000	18.985848  
622.500000	19.330772  
623.000000	19.810696  
623.500000	20.648689  
624.000000	21.755280  
624.500000	23.076424  
625.000000	23.746636  
625.500000	23.766416  
626.000000	23.597424  
626.500000	24.355803  
627.000000	25.914977  
627.500000	27.613348  
628.000000	28.922159  
628.500000	29.832606  
629.000000	30.825787  
629.500000	31.915499  
630.000000	33.201492  
630.500000	34.305356  
631.000000	35.609712  
631.500000	36.929666  
632.000000	38.616765  
632.500000	39.923295  
633.000000	40.863984  
633.500000	41.547787  
634.000000	42.955499  
634.500000	44.781537  
635.000000	46.747553  
635.500000	48.121621  
636.000000	49.722878  
636.500000	51.464696  
637.000000	53.300159  
637.500000	54.524287  
638.000000	56.108439  
638.500000	57.606833  
639.000000	59.050568  
639.500000	59.938719  
640.000000	61.725272  
640.500000	63.298356  
641.000000	65.553590  
641.500000	68.008181  
642.000000	71.688257  
642.500000	74.258181  
643.000000	75.494924  
643.500000	75.690045  
644.000000	77.314113  
644.500000	80.445901  
645.000000	84.270075  
645.500000	87.629848  
646.000000	89.369787  
646.500000	90.065863  
647.000000	90.952030  
647.500000	93.435712  
648.000000	95.976037  
648.500000	98.178598  
649.000000	99.512780  
649.500000	101.755931 
650.000000	104.068590 
650.500000	106.454219 
651.000000	108.815037 
651.500000	112.112416 
652.000000	115.763310 
652.500000	118.627598 
653.000000	120.646780 
653.500000	121.277469 
654.000000	122.591780 
654.500000	123.913606 
655.000000	126.054825 
655.500000	127.998113 
656.000000	130.233280 
656.500000	132.949500 
657.000000	135.794030 
657.500000	138.348537 
658.000000	140.245136 
658.500000	143.326219 
659.000000	146.619931 
659.500000	150.279272 
660.000000	151.038946 
660.500000	151.595757 
661.000000	151.882507 
661.500000	154.292484 
662.000000	156.021780 
662.500000	158.628575 
663.000000	160.528098 
663.500000	163.229553 
664.000000	163.341196 
664.500000	163.496181 
665.000000	164.677780 
665.500000	168.558825 
666.000000	171.024893 
666.500000	171.942371 
667.000000	171.494439 
667.500000	171.947250 
668.000000	172.416689 
668.500000	173.390106 
669.000000	174.190787 
669.500000	174.713651 
670.000000	174.615386 
670.500000	174.704575 
671.000000	175.880530 
671.500000	177.662825 
672.000000	178.936848 
672.500000	179.244553 
673.000000	178.751742 
673.500000	178.062583 
674.000000	178.308803 
674.500000	178.364500 
675.000000	178.940856 
675.500000	178.906053 
676.000000	178.934000 
676.500000	176.499219 
677.000000	174.475856 
677.500000	172.697712 
678.000000	173.807068 
678.500000	173.885053 
679.000000	173.593492 
679.500000	172.081818 
680.000000	171.805515 
680.500000	170.170696 
681.000000	168.946886 
681.500000	167.018356 
682.000000	165.002924 
682.500000	163.559393 
683.000000	163.012159 
683.500000	162.931901 
684.000000	160.358696 
684.500000	156.582651 
685.000000	152.552757 
685.500000	151.285287 
686.000000	149.794962 
686.500000	148.722136 
687.000000	146.504166 
687.500000	144.069810 
688.000000	141.467340 
688.500000	138.660181 
689.000000	135.292348 
689.500000	131.935984 
690.000000	128.876000 
690.500000	126.367568 
691.000000	124.108000 
691.500000	121.796393 
692.000000	119.802492 
692.500000	116.760393 
693.000000	111.973916 
693.500000	106.739825 
694.000000	104.126431 
694.500000	103.462674 
695.000000	103.032651 
695.500000	100.169393 
696.000000	96.495340  
696.500000	93.757818  
697.000000	91.999227  
697.500000	89.281068  
698.000000	85.824840  
698.500000	82.726863  
699.000000	81.038628  
699.500000	79.543378  
700.000000	77.436780  
700.500000	74.072537  
701.000000	71.009818  
701.500000	68.513325  
702.000000	67.702462  
702.500000	66.644204  
703.000000	65.279530  
703.500000	63.267598  
704.000000	61.904515  
704.500000	59.886863  
705.000000	57.418174  
705.500000	54.768651  
706.000000	52.935303  
706.500000	51.597378  
707.000000	50.539848  
707.500000	49.513378  
708.000000	48.243090  
708.500000	46.941954  
709.000000	45.460848  
709.500000	44.498128  
710.000000	43.549939  
710.500000	42.254621  
711.000000	40.616651  
711.500000	39.493159  
712.000000	38.693537  
712.500000	37.810833  
713.000000	36.497068  
713.500000	34.861946  
714.000000	33.107590  
714.500000	31.687204  
715.000000	30.700560  
715.500000	30.053075  
716.000000	29.174954  
716.500000	28.524136  
717.000000	28.402621  
717.500000	28.364863  
718.000000	27.775628  
718.500000	26.690219  
719.000000	25.572409  
719.500000	24.632318  
720.000000	23.814333  
720.500000	22.927878  
721.000000	22.206704  
721.500000	22.098803  
722.000000	22.290590  
722.500000	21.775265  
723.000000	20.308431  
723.500000	18.849431  
724.000000	18.464636  
724.500000	18.659643  
725.000000	18.599742  
725.500000	17.830621  
726.000000	17.088863  
726.500000	16.712325  
727.000000	16.544234  
727.500000	16.066666  
728.000000	15.484401  
728.500000	14.928295  
729.000000	14.564636  
729.500000	14.269257  
730.000000	14.195431  
730.500000	14.060068  
731.000000	13.666765  
731.500000	12.868098  
732.000000	12.321583  
732.500000	12.195840  
733.000000	12.101545  
733.500000	11.667848  
734.000000	11.036772  
734.500000	10.683212  
735.000000	10.778946  
735.500000	11.120780  
736.000000	11.102674  
736.500000	10.585780  
737.000000	9.892818   
737.500000	9.515075   
738.000000	9.534363   
738.500000	9.372848   
739.000000	9.231742   
739.500000	9.275515   
740.000000	9.323712   
740.500000	8.940204   
741.000000	8.509416   
741.500000	8.258984   
742.000000	8.205310   
742.500000	8.065787   
743.000000	7.872954   
743.500000	7.957674   
744.000000	8.095696   
744.500000	8.079977   
745.000000	7.742931   
745.500000	7.487500   
746.000000	7.243212   
746.500000	7.137568   
747.000000	6.784310   
747.500000	6.585030   
748.000000	6.422954   
748.500000	6.176992   
749.000000	5.826977   
749.500000	5.714674   
750.000000	6.006916   
750.500000	6.155628   
751.000000	6.216401   
751.500000	6.125628   
752.000000	6.315401   
752.500000	6.229484   
753.000000	5.883696   
753.500000	5.278712   
754.000000	5.031765   
754.500000	5.070636   
755.000000	5.230689   
755.500000	5.152090   
756.000000	4.959143   
756.500000	4.695401   
757.000000	4.487439   
757.500000	4.276545   
758.000000	4.268765   
758.500000	4.400681   
759.000000	4.588219   
759.500000	4.750606   
760.000000	4.811772   
760.500000	4.779393   
761.000000	4.635000   
761.500000	4.551053   
762.000000	4.429386   
762.500000	4.359818   
763.000000	4.271303   
763.500000	4.296242   
764.000000	4.451242   
764.500000	4.592545   
765.000000	4.680000   
765.500000	4.521295   
766.000000	4.180636   
766.500000	3.954795   
767.000000	4.009787   
767.500000	4.114015   
768.000000	4.037560   
768.500000	3.818803   
769.000000	3.678356   
769.500000	3.861045   
770.000000	3.955507   
770.500000	3.799628   
771.000000	3.422060   
771.500000	3.216181   
772.000000	3.165734   
772.500000	3.149795   
773.000000	2.964734   
773.500000	2.854136   
774.000000	2.768681   
774.500000	2.879500   
775.000000	2.978833   
775.500000	3.055742   
776.000000	3.043833   
776.500000	3.080431   
777.000000	3.052583   
777.500000	2.973878   
778.000000	2.892719   
778.500000	2.867484   
779.000000	2.914045   
779.500000	2.991075   
780.000000	3.130992   
780.500000	3.112037   
781.000000	3.004621   
781.500000	2.929484   
782.000000	3.010765   
782.500000	3.057613   
783.000000	3.069787   
783.500000	3.013696   
784.000000	2.882393   
784.500000	2.804113   
785.000000	2.804007   
785.500000	2.906560   
786.000000	2.910886   
786.500000	2.900037   
787.000000	2.857500   
787.500000	2.951537   
788.000000	3.036393   
788.500000	3.091083   
789.000000	2.887454   
789.500000	2.542787   
790.000000	2.214765   
790.500000	2.217878   
791.000000	2.491196   
791.500000	2.835750   
792.000000	2.915833   
792.500000	2.605166   
793.000000	2.299704   
793.500000	2.205143   
794.000000	2.352378   
794.500000	2.520704   
795.000000	2.700022   
795.500000	2.738219   
796.000000	2.610477   
796.500000	2.230992   
797.000000	1.942575   
797.500000	1.949893   
798.000000	2.245143   
798.500000	2.603515   
799.000000	2.741696   
799.500000	2.511833   
800.000000	2.280204   
800.500000	2.308242   
801.000000	2.521613   
801.500000	2.516106   
802.000000	2.115250   
802.500000	1.690075   
803.000000	1.611659   
803.500000	1.696340   
804.000000	1.741954   
804.500000	1.731969   
805.000000	1.801151   
805.500000	1.930189   
806.000000	1.841568   
806.500000	1.657681   
807.000000	1.554219   
807.500000	1.606181   
808.000000	1.537810   
808.500000	1.616075   
809.000000	1.747863   
809.500000	1.877075   
810.000000	1.839583   
810.500000	1.740810   
811.000000	1.714356   
811.500000	1.556568   
812.000000	1.463272   
812.500000	1.361916   
813.000000	1.448060   
813.500000	1.473151   
814.000000	1.624439   
814.500000	1.779878   
815.000000	1.746477   
815.500000	1.569227   
816.000000	1.409318   
816.500000	1.552484   
817.000000	1.700287   
817.500000	1.714780   
818.000000	1.565030   
818.500000	1.531583   
819.000000	1.586795   
819.500000	1.634772   
820.000000	1.726469   
820.500000	1.797022   
821.000000	1.943378   
821.500000	2.158128   
822.000000	2.543977   
822.500000	2.894128   
823.000000	2.951628   
823.500000	2.626000   
824.000000	2.348363   
824.500000	2.192560   
825.000000	2.242159   
825.500000	2.320765   
826.000000	2.319136   
826.500000	2.225886   
827.000000	2.098128   
827.500000	1.899727   
828.000000	1.731325   
828.500000	1.862878   
829.000000	2.199651   
829.500000	2.332590   
830.000000	1.871560   
830.500000	1.198719   
831.000000	0.939772   
831.500000	1.055810   
832.000000	1.160030   
832.500000	1.165553   
833.000000	1.196810   
833.500000	1.258977   
834.000000	1.252825   
834.500000	1.114734   
835.000000	0.972446   
835.500000	0.904356   
836.000000	1.026537   
836.500000	1.159492   
837.000000	1.131818   
837.500000	0.900295   
838.000000	0.806598   
838.500000	0.903507   
839.000000	1.073053   
839.500000	1.065212   
840.000000	0.836416   
840.500000	0.650484   
841.000000	0.609356   
841.500000	0.714045   
842.000000	0.795924   
842.500000	0.844545   
843.000000	0.769954   
843.500000	0.679000   
844.000000	0.530560   
844.500000	0.446984   
845.000000	0.257022   
845.500000	0.064507   
846.000000	0.007606   
846.500000	0.091803   
847.000000	0.174446   
847.500000	0.241272   
848.000000	0.335583   
848.500000	0.391681   
849.000000	0.431121   
849.500000	0.393000   
850.000000	0.337954   
850.500000	0.166734   
851.000000	0.054287   
851.500000	0.084257   
852.000000	0.213666   
852.500000	0.230204   
853.000000	0.156068   
853.500000	-0.042507  
854.000000	-0.143810  
854.500000	-0.100068  
855.000000	0.104765   
855.500000	0.260371   
856.000000	0.341613   
856.500000	0.268204   
857.000000	0.240613   
857.500000	0.184242   
858.000000	0.162371   
858.500000	-0.098386  
859.000000	-0.303916  
859.500000	-0.345333  
860.000000	-0.017045  
860.500000	0.161704   
861.000000	0.141886   
861.500000	-0.091060  
862.000000	-0.113219  
862.500000	-0.082613  
863.000000	0.052871   
863.500000	0.126310   
864.000000	0.241522   
864.500000	0.280931   
865.000000	0.297098   
865.500000	0.163863   
866.000000	-0.007371  
866.500000	-0.050962  
867.000000	0.094954   
867.500000	0.261803   
868.000000	0.271833   
868.500000	0.193583   
869.000000	0.125568   
869.500000	0.149651   
870.000000	0.125946   
870.500000	0.041227   
871.000000	-0.081856  
871.500000	-0.086196  
872.000000	-0.017454  
872.500000	0.071871   
873.000000	0.026303   
873.500000	-0.033234  
874.000000	-0.067878  
874.500000	-0.051939  
875.000000	0.004787   
875.500000	0.095984   
876.000000	0.062886   
876.500000	0.065075   
877.000000	0.045356   
877.500000	0.057893   
878.000000	-0.055000  
878.500000	-0.099053  
879.000000	-0.098477  
879.500000	0.003060   
880.000000	-0.022371  
880.500000	-0.047371  
881.000000	-0.096386  
881.500000	-0.100863  
882.000000	-0.088121  
882.500000	0.044113   
883.000000	0.126984   
883.500000	0.158265   
884.000000	0.085234   
884.500000	-0.011674  
885.000000	-0.107530  
885.500000	-0.143757  
886.000000	-0.075840  
886.500000	-0.011356  
887.000000	0.031409   
887.500000	-0.021340  
888.000000	-0.054901  
888.500000	-0.124734  
889.000000	-0.149621  
889.500000	-0.150303  
890.000000	-0.089318  
890.500000	-0.090848  
891.000000	-0.098969  
891.500000	-0.112159  
892.000000	-0.047090  
892.500000	-0.068431  
893.000000	-0.094727  
893.500000	-0.085901  
894.000000	0.022037   
894.500000	-0.008424  
895.000000	-0.116522  
895.500000	-0.183742  
896.000000	-0.084659  
896.500000	-0.014060  
897.000000	0.010439   
897.500000	-0.023946  
898.000000	-0.005969  
898.500000	0.023045   
899.000000	0.066113   
899.500000	-0.031007  
900.000000	-0.292856  
900.500000	-0.699999  

