PE FL                   SPECTRUM    ASCII       PEDS        1.60        
  -1
S0138B~1.SP
24/04/11
17:00:22.00
24/04/11
17:00:22.00
Jan

896.500000
1









LS55
405.00
5.00
5.00
SCAN
1
20
100
100
0
400
0
1
0
1
5
ON
736 405 
1 0 0
#HDR
-1
-1
#GR
NM

0.00002384185791015625
0.0
450.000000
0.500000
894
8
326.939575
-0.395000
#DATA
450.000000	-0.395000  
450.500000	-0.230888  
451.000000	-0.125200  
451.500000	-0.041109  
452.000000	0.032582   
452.500000	0.101070   
453.000000	0.117816   
453.500000	0.109100   
454.000000	0.133228   
454.500000	0.073397   
455.000000	-0.016200  
455.500000	-0.132810  
456.000000	-0.189128  
456.500000	-0.223623  
457.000000	-0.278148  
457.500000	-0.281662  
458.000000	-0.295612  
458.500000	-0.293179  
459.000000	-0.303263  
459.500000	-0.264829  
460.000000	-0.160163  
460.500000	-0.062617  
461.000000	0.074231   
461.500000	0.186682   
462.000000	0.252437   
462.500000	0.277404   
463.000000	0.259217   
463.500000	0.238922   
464.000000	0.123037   
464.500000	0.013591   
465.000000	-0.058660  
465.500000	-0.116931  
466.000000	-0.125265  
466.500000	-0.083256  
467.000000	0.024491   
467.500000	0.082736   
468.000000	0.143842   
468.500000	0.175896   
469.000000	0.188456   
469.500000	0.154441   
470.000000	0.098024   
470.500000	0.080176   
471.000000	0.070246   
471.500000	0.121243   
472.000000	0.157424   
472.500000	0.230580   
473.000000	0.249480   
473.500000	0.223367   
474.000000	0.165864   
474.500000	0.086827   
475.000000	0.046413   
475.500000	-0.011116  
476.000000	-0.024000  
476.500000	-0.043064  
477.000000	-0.018282  
477.500000	0.023385   
478.000000	0.078957   
478.500000	0.220775   
479.000000	0.329628   
479.500000	0.379103   
480.000000	0.323944   
480.500000	0.251495   
481.000000	0.142851   
481.500000	0.015018   
482.000000	-0.011625  
482.500000	0.043515   
483.000000	0.092549   
483.500000	0.101411   
484.000000	0.115166   
484.500000	0.126317   
485.000000	0.081378   
485.500000	0.068005   
486.000000	0.128018   
486.500000	0.194589   
487.000000	0.240361   
487.500000	0.275198   
488.000000	0.285178   
488.500000	0.251703   
489.000000	0.185172   
489.500000	0.166749   
490.000000	0.165224   
490.500000	0.197610   
491.000000	0.271194   
491.500000	0.362619   
492.000000	0.428122   
492.500000	0.419480   
493.000000	0.403285   
493.500000	0.332512   
494.000000	0.260144   
494.500000	0.187749   
495.000000	0.175675   
495.500000	0.229302   
496.000000	0.300792   
496.500000	0.401708   
497.000000	0.465766   
497.500000	0.524001   
498.000000	0.516565   
498.500000	0.485328   
499.000000	0.454230   
499.500000	0.431371   
500.000000	0.420615   
500.500000	0.402717   
501.000000	0.403259   
501.500000	0.401502   
502.000000	0.414515   
502.500000	0.438825   
503.000000	0.502391   
503.500000	0.586085   
504.000000	0.668929   
504.500000	0.760148   
505.000000	0.841517   
505.500000	0.875179   
506.000000	0.875740   
506.500000	0.889604   
507.000000	0.891480   
507.500000	0.883807   
508.000000	0.919660   
508.500000	1.020916   
509.000000	1.128384   
509.500000	1.225393   
510.000000	1.354836   
510.500000	1.464779   
511.000000	1.524912   
511.500000	1.581265   
512.000000	1.666250   
512.500000	1.754133   
513.000000	1.802046   
513.500000	1.848469   
514.000000	1.865107   
514.500000	1.879693   
515.000000	1.863576   
515.500000	1.853356   
516.000000	1.869332   
516.500000	1.900102   
517.000000	1.987168   
517.500000	2.067178   
518.000000	2.207192   
518.500000	2.366090   
519.000000	2.495653   
519.500000	2.606124   
520.000000	2.660606   
520.500000	2.698356   
521.000000	2.637684   
521.500000	2.603634   
522.000000	2.624896   
522.500000	2.679452   
523.000000	2.744018   
523.500000	2.850089   
524.000000	2.978083   
524.500000	3.062213   
525.000000	3.158469   
525.500000	3.312189   
526.000000	3.456688   
526.500000	3.628901   
527.000000	3.904758   
527.500000	4.197873   
528.000000	4.471944   
528.500000	4.750358   
529.000000	5.038669   
529.500000	5.249578   
530.000000	5.349962   
530.500000	5.420092   
531.000000	5.426901   
531.500000	5.470534   
532.000000	5.588521   
532.500000	5.817174   
533.000000	6.146541   
533.500000	6.483270   
534.000000	6.866593   
534.500000	7.189910   
535.000000	7.575033   
535.500000	8.013189   
536.000000	8.443725   
536.500000	8.938808   
537.000000	9.300564   
537.500000	9.584109   
538.000000	9.729781   
538.500000	9.859012   
539.000000	10.099487  
539.500000	10.372146  
540.000000	10.774339  
540.500000	11.080096  
541.000000	11.399113  
541.500000	11.683968  
542.000000	11.837705  
542.500000	12.008894  
543.000000	12.112679  
543.500000	12.179343  
544.000000	12.071851  
544.500000	11.849907  
545.000000	11.650567  
545.500000	11.381725  
546.000000	11.188551  
546.500000	11.117523  
547.000000	11.100241  
547.500000	11.067564  
548.000000	10.969361  
548.500000	10.850276  
549.000000	10.639998  
549.500000	10.363803  
550.000000	10.160139  
550.500000	9.960473   
551.000000	9.817643   
551.500000	9.694834   
552.000000	9.583972   
552.500000	9.572940   
553.000000	9.547623   
553.500000	9.630358   
554.000000	9.832552   
554.500000	10.075862  
555.000000	10.337497  
555.500000	10.558107  
556.000000	10.876252  
556.500000	11.201692  
557.000000	11.356126  
557.500000	11.455408  
558.000000	11.534307  
558.500000	11.601224  
559.000000	11.644632  
559.500000	11.914001  
560.000000	12.486241  
560.500000	13.110745  
561.000000	13.734784  
561.500000	14.330248  
562.000000	14.812231  
562.500000	15.183410  
563.000000	15.478562  
563.500000	15.878922  
564.000000	16.380369  
564.500000	16.923669  
565.000000	17.595012  
565.500000	18.315771  
566.000000	19.078525  
566.500000	19.808740  
567.000000	20.450361  
567.500000	21.009016  
568.000000	21.448369  
568.500000	21.852974  
569.000000	22.360853  
569.500000	22.939192  
570.000000	23.445712  
570.500000	24.003747  
571.000000	24.532166  
571.500000	24.907588  
572.000000	25.218077  
572.500000	25.802710  
573.000000	26.474473  
573.500000	27.119332  
574.000000	27.944658  
574.500000	28.854858  
575.000000	29.652016  
575.500000	30.353385  
576.000000	31.200081  
576.500000	32.073369  
577.000000	32.772664  
577.500000	33.450784  
578.000000	34.186000  
578.500000	34.853719  
579.000000	35.444966  
579.500000	36.155044  
580.000000	37.010033  
580.500000	37.857942  
581.000000	38.562905  
581.500000	39.324291  
582.000000	40.201246  
582.500000	40.985174  
583.000000	41.646790  
583.500000	42.412406  
584.000000	43.339022  
584.500000	44.178925  
585.000000	45.220619  
585.500000	46.677606  
586.000000	48.251890  
586.500000	49.791410  
587.000000	51.327109  
587.500000	52.837883  
588.000000	54.122302  
588.500000	55.250922  
589.000000	56.447775  
589.500000	57.693450  
590.000000	59.043940  
590.500000	60.380027  
591.000000	61.830454  
591.500000	63.526844  
592.000000	65.346163  
592.500000	67.280710  
593.000000	69.210315  
593.500000	71.185914  
594.000000	72.954350  
594.500000	74.455721  
595.000000	75.929666  
595.500000	77.356621  
596.000000	78.692363  
596.500000	80.050118  
597.000000	81.725461  
597.500000	83.554897  
598.000000	85.460599  
598.500000	87.382671  
599.000000	89.465916  
599.500000	91.322953  
600.000000	93.043358  
600.500000	95.155282  
601.000000	97.368085  
601.500000	99.584230  
602.000000	101.802697 
602.500000	104.216189 
603.000000	106.472538 
603.500000	108.326610 
604.000000	110.508923 
604.500000	113.120922 
605.000000	115.818371 
605.500000	118.457649 
606.000000	121.065875 
606.500000	123.722202 
607.000000	125.998836 
607.500000	128.117645 
608.000000	130.786627 
608.500000	133.997051 
609.000000	137.169176 
609.500000	140.194042 
610.000000	143.238217 
610.500000	146.172549 
611.000000	148.801374 
611.500000	151.415782 
612.000000	154.792684 
612.500000	158.502871 
613.000000	162.589404 
613.500000	166.721840 
614.000000	170.498064 
614.500000	174.243243 
615.000000	177.188126 
615.500000	179.949627 
616.000000	182.545031 
616.500000	185.678968 
617.000000	189.062478 
617.500000	192.292656 
618.000000	196.122666 
618.500000	199.698536 
619.000000	202.894037 
619.500000	205.793827 
620.000000	209.129688 
620.500000	212.537445 
621.000000	216.136690 
621.500000	220.298667 
622.000000	224.700595 
622.500000	228.926936 
623.000000	232.794988 
623.500000	236.611020 
624.000000	239.863445 
624.500000	242.810261 
625.000000	245.821578 
625.500000	249.291890 
626.000000	253.069294 
626.500000	257.160209 
627.000000	261.217324 
627.500000	264.903393 
628.000000	267.888257 
628.500000	270.039445 
629.000000	272.395556 
629.500000	274.937157 
630.000000	277.968172 
630.500000	281.370456 
631.000000	285.499799 
631.500000	289.720701 
632.000000	293.188489 
632.500000	296.200994 
633.000000	299.080343 
633.500000	301.703528 
634.000000	303.977148 
634.500000	306.238432 
635.000000	308.568725 
635.500000	310.851419 
636.000000	312.946844 
636.500000	315.072699 
637.000000	316.488146 
637.500000	317.469009 
638.000000	318.089079 
638.500000	318.195018 
639.000000	318.274187 
639.500000	318.752729 
640.000000	319.995734 
640.500000	321.046447 
641.000000	322.469014 
641.500000	324.311879 
642.000000	325.762363 
642.500000	326.328942 
643.000000	326.541166 
643.500000	326.939575 
644.000000	326.625671 
644.500000	325.641150 
645.000000	324.484415 
645.500000	323.471076 
646.000000	322.201155 
646.500000	320.910868 
647.000000	319.912747 
647.500000	319.219630 
648.000000	318.340428 
648.500000	317.183382 
649.000000	315.666471 
649.500000	313.652068 
650.000000	311.179584 
650.500000	308.608283 
651.000000	306.469263 
651.500000	304.514578 
652.000000	303.038556 
652.500000	301.445680 
653.000000	299.535230 
653.500000	297.172482 
654.000000	294.638686 
654.500000	291.842068 
655.000000	288.549384 
655.500000	285.583508 
656.000000	282.259925 
656.500000	278.687378 
657.000000	275.116615 
657.500000	271.632946 
658.000000	268.003050 
658.500000	263.952851 
659.000000	260.270719 
659.500000	256.571729 
660.000000	252.766591 
660.500000	249.166435 
661.000000	245.813113 
661.500000	242.686005 
662.000000	239.218597 
662.500000	235.295944 
663.000000	231.063317 
663.500000	226.497549 
664.000000	221.692842 
664.500000	216.942476 
665.000000	212.441241 
665.500000	208.169222 
666.000000	203.641944 
666.500000	199.005925 
667.000000	194.467788 
667.500000	189.739725 
668.000000	185.141426 
668.500000	180.555842 
669.000000	176.643712 
669.500000	173.059510 
670.000000	169.717745 
670.500000	166.455072 
671.000000	162.519237 
671.500000	158.271827 
672.000000	153.262311 
672.500000	147.878064 
673.000000	142.517461 
673.500000	137.661233 
674.000000	133.921313 
674.500000	130.682209 
675.000000	127.984050 
675.500000	125.500732 
676.000000	122.763946 
676.500000	119.718571 
677.000000	116.320743 
677.500000	112.917634 
678.000000	109.370820 
678.500000	105.821768 
679.000000	102.598076 
679.500000	99.431465  
680.000000	96.635413  
680.500000	94.138645  
681.000000	91.672215  
681.500000	89.194493  
682.000000	86.717443  
682.500000	84.253658  
683.000000	81.745940  
683.500000	79.305940  
684.000000	76.920795  
684.500000	74.570589  
685.000000	72.122886  
685.500000	69.742189  
686.000000	67.417011  
686.500000	65.378576  
687.000000	63.619096  
687.500000	62.012673  
688.000000	60.658595  
688.500000	59.203059  
689.000000	57.780705  
689.500000	56.187083  
690.000000	54.532940  
690.500000	52.947623  
691.000000	51.473768  
691.500000	50.185222  
692.000000	48.814313  
692.500000	47.431012  
693.000000	46.135992  
693.500000	44.639118  
694.000000	43.110009  
694.500000	41.711426  
695.000000	40.497050  
695.500000	39.340113  
696.000000	38.219320  
696.500000	37.362382  
697.000000	36.553589  
697.500000	35.814072  
698.000000	35.051717  
698.500000	34.265244  
699.000000	33.393938  
699.500000	32.305207  
700.000000	31.067612  
700.500000	29.854589  
701.000000	28.858194  
701.500000	27.929669  
702.000000	27.170241  
702.500000	26.675753  
703.000000	26.356784  
703.500000	25.943758  
704.000000	25.459560  
704.500000	25.064411  
705.000000	24.496738  
705.500000	23.700411  
706.000000	22.860489  
706.500000	22.215025  
707.000000	21.656576  
707.500000	21.145304  
708.000000	20.902335  
708.500000	20.764881  
709.000000	20.605391  
709.500000	20.296187  
710.000000	20.004181  
710.500000	19.726920  
711.000000	19.309205  
711.500000	18.874526  
712.000000	18.339003  
712.500000	17.795380  
713.000000	17.087434  
713.500000	16.379684  
714.000000	15.844883  
714.500000	15.479239  
715.000000	15.324562  
715.500000	15.291781  
716.000000	15.323536  
716.500000	15.243385  
717.000000	14.945424  
717.500000	14.551773  
718.000000	14.125181  
718.500000	13.627896  
719.000000	13.312699  
719.500000	13.154547  
720.000000	13.114853  
720.500000	13.033888  
721.000000	12.872576  
721.500000	12.660521  
722.000000	12.176667  
722.500000	11.716831  
723.000000	11.267782  
723.500000	11.005873  
724.000000	10.881348  
724.500000	10.894241  
725.000000	10.966508  
725.500000	10.882554  
726.000000	10.707615  
726.500000	10.333484  
727.000000	9.917949   
727.500000	9.592202   
728.000000	9.381131   
728.500000	9.197426   
729.000000	9.082884   
729.500000	9.091920   
730.000000	9.079424   
730.500000	9.008230   
731.000000	8.962612   
731.500000	8.987050   
732.000000	8.894122   
732.500000	8.767461   
733.000000	8.609879   
733.500000	8.476369   
734.000000	8.295044   
734.500000	8.125875   
735.000000	7.994391   
735.500000	7.851727   
736.000000	7.740781   
736.500000	7.612927   
737.000000	7.543760   
737.500000	7.453272   
738.000000	7.351059   
738.500000	7.199012   
739.000000	7.053821   
739.500000	6.932064   
740.000000	6.808335   
740.500000	6.771317   
741.000000	6.682040   
741.500000	6.599452   
742.000000	6.472365   
742.500000	6.298528   
743.000000	6.161484   
743.500000	6.101415   
744.000000	6.214011   
744.500000	6.342315   
745.000000	6.479866   
745.500000	6.599643   
746.000000	6.539287   
746.500000	6.370671   
747.000000	6.174773   
747.500000	5.982946   
748.000000	5.802224   
748.500000	5.725578   
749.000000	5.721974   
749.500000	5.689736   
750.000000	5.601274   
750.500000	5.563100   
751.000000	5.487784   
751.500000	5.386684   
752.000000	5.385339   
752.500000	5.376940   
753.000000	5.410020   
753.500000	5.347525   
754.000000	5.302215   
754.500000	5.201152   
755.000000	5.051384   
755.500000	4.974463   
756.000000	4.887035   
756.500000	4.882435   
757.000000	4.868361   
757.500000	4.853641   
758.000000	4.796784   
758.500000	4.667244   
759.000000	4.534892   
759.500000	4.372569   
760.000000	4.252666   
760.500000	4.172346   
761.000000	4.192096   
761.500000	4.293697   
762.000000	4.403435   
762.500000	4.492400   
763.000000	4.520200   
763.500000	4.480552   
764.000000	4.410758   
764.500000	4.338421   
765.000000	4.368625   
765.500000	4.470035   
766.000000	4.589970   
766.500000	4.652215   
767.000000	4.630827   
767.500000	4.548957   
768.000000	4.343435   
768.500000	4.133096   
769.000000	3.971115   
769.500000	3.856142   
770.000000	3.812714   
770.500000	3.760660   
771.000000	3.753144   
771.500000	3.696458   
772.000000	3.665686   
772.500000	3.638328   
773.000000	3.609693   
773.500000	3.618205   
774.000000	3.584324   
774.500000	3.581873   
775.000000	3.532981   
775.500000	3.482441   
776.000000	3.434747   
776.500000	3.418215   
777.000000	3.435280   
777.500000	3.398224   
778.000000	3.377263   
778.500000	3.336404   
779.000000	3.290697   
779.500000	3.217139   
780.000000	3.186927   
780.500000	3.174602   
781.000000	3.142439   
781.500000	3.129369   
782.000000	3.140100   
782.500000	3.185048   
783.000000	3.208103   
783.500000	3.233205   
784.000000	3.212909   
784.500000	3.165510   
785.000000	3.079647   
785.500000	2.986983   
786.000000	2.925564   
786.500000	2.898961   
787.000000	2.929530   
787.500000	2.987671   
788.000000	3.042972   
788.500000	3.076730   
789.000000	3.104222   
789.500000	3.098489   
790.000000	3.047417   
790.500000	3.001658   
791.000000	2.968545   
791.500000	2.948799   
792.000000	2.922959   
792.500000	2.909517   
793.000000	2.879048   
793.500000	2.829335   
794.000000	2.808589   
794.500000	2.817660   
795.000000	2.857512   
795.500000	2.885985   
796.000000	2.914599   
796.500000	2.858183   
797.000000	2.723545   
797.500000	2.570821   
798.000000	2.454296   
798.500000	2.397239   
799.000000	2.424998   
799.500000	2.555716   
800.000000	2.662721   
800.500000	2.741508   
801.000000	2.703098   
801.500000	2.612675   
802.000000	2.470001   
802.500000	2.303961   
803.000000	2.235283   
803.500000	2.218230   
804.000000	2.288588   
804.500000	2.361218   
805.000000	2.383881   
805.500000	2.376287   
806.000000	2.269870   
806.500000	2.112606   
807.000000	1.913786   
807.500000	1.769628   
808.000000	1.723315   
808.500000	1.691528   
809.000000	1.755602   
809.500000	1.827886   
810.000000	1.914703   
810.500000	1.973410   
811.000000	1.975135   
811.500000	1.984085   
812.000000	1.916367   
812.500000	1.845805   
813.000000	1.746076   
813.500000	1.679189   
814.000000	1.672467   
814.500000	1.712087   
815.000000	1.799551   
815.500000	1.879361   
816.000000	1.949775   
816.500000	1.918775   
817.000000	1.790120   
817.500000	1.664862   
818.000000	1.596033   
818.500000	1.546705   
819.000000	1.574356   
819.500000	1.714022   
820.000000	1.913554   
820.500000	2.095371   
821.000000	2.265359   
821.500000	2.462866   
822.000000	2.550910   
822.500000	2.599011   
823.000000	2.601298   
823.500000	2.592656   
824.000000	2.566736   
824.500000	2.500790   
825.000000	2.521398   
825.500000	2.527938   
826.000000	2.552777   
826.500000	2.549131   
827.000000	2.462864   
827.500000	2.354011   
828.000000	2.152109   
828.500000	1.945560   
829.000000	1.719974   
829.500000	1.569371   
830.000000	1.521614   
830.500000	1.484257   
831.000000	1.522723   
831.500000	1.551113   
832.000000	1.579614   
832.500000	1.504755   
833.000000	1.415090   
833.500000	1.362985   
834.000000	1.276356   
834.500000	1.213985   
835.000000	1.168452   
835.500000	1.149241   
836.000000	1.083777   
836.500000	1.021862   
837.000000	0.965608   
837.500000	0.899324   
838.000000	0.882094   
838.500000	0.875985   
839.000000	0.857567   
839.500000	0.835332   
840.000000	0.837198   
840.500000	0.853157   
841.000000	0.805987   
841.500000	0.770790   
842.000000	0.714304   
842.500000	0.596551   
843.000000	0.484296   
843.500000	0.416617   
844.000000	0.444183   
844.500000	0.490339   
845.000000	0.596831   
845.500000	0.705009   
846.000000	0.758808   
846.500000	0.758890   
847.000000	0.687656   
847.500000	0.612491   
848.000000	0.534437   
848.500000	0.492925   
849.000000	0.469079   
849.500000	0.442625   
850.000000	0.428922   
850.500000	0.380825   
851.000000	0.312111   
851.500000	0.227528   
852.000000	0.172024   
852.500000	0.159935   
853.000000	0.159985   
853.500000	0.202333   
854.000000	0.251491   
854.500000	0.317417   
855.000000	0.359946   
855.500000	0.378512   
856.000000	0.392200   
856.500000	0.357699   
857.000000	0.305170   
857.500000	0.240389   
858.000000	0.202474   
858.500000	0.204849   
859.000000	0.188239   
859.500000	0.196263   
860.000000	0.174454   
860.500000	0.144192   
861.000000	0.088925   
861.500000	0.023994   
862.000000	0.017675   
862.500000	0.017447   
863.000000	0.027538   
863.500000	0.029491   
864.000000	0.041452   
864.500000	0.027226   
865.000000	-0.003124  
865.500000	-0.000159  
866.000000	0.021230   
866.500000	0.057079   
867.000000	0.094385   
867.500000	0.135899   
868.000000	0.151293   
868.500000	0.137307   
869.000000	0.101000   
869.500000	0.060710   
870.000000	0.025437   
870.500000	-0.010708  
871.000000	-0.037168  
871.500000	-0.049102  
872.000000	-0.064345  
872.500000	-0.072371  
873.000000	-0.083257  
873.500000	-0.081038  
874.000000	-0.081213  
874.500000	-0.076630  
875.000000	-0.046886  
875.500000	-0.029487  
876.000000	-0.028716  
876.500000	-0.032717  
877.000000	-0.043111  
877.500000	-0.064975  
878.000000	-0.065337  
878.500000	-0.058419  
879.000000	-0.026846  
879.500000	-0.001222  
880.000000	0.040729   
880.500000	0.054788   
881.000000	0.054766   
881.500000	0.076530   
882.000000	0.078630   
882.500000	0.097445   
883.000000	0.104447   
883.500000	0.106441   
884.000000	0.056840   
884.500000	-0.013630  
885.000000	-0.061243  
885.500000	-0.108938  
886.000000	-0.148256  
886.500000	-0.156682  
887.000000	-0.101714  
887.500000	-0.055252  
888.000000	-0.027330  
888.500000	0.005126   
889.000000	0.052844   
889.500000	0.075463   
890.000000	0.067098   
890.500000	0.085319   
891.000000	0.097024   
891.500000	0.055053   
892.000000	-0.014434  
892.500000	-0.069142  
893.000000	-0.115487  
893.500000	-0.179170  
894.000000	-0.199513  
894.500000	-0.163697  
895.000000	-0.132799  
895.500000	-0.111089  
896.000000	-0.093371  
896.500000	-0.069202  

